# Measure capacity
# V0 = 19.888V
# t/s 	 U/V 	 I/A 	 Q/As 	 Q/mAh 	 P/W 	 W/mWh
0	19.650	2.05	0.00	0.000	0.00	0
2	19.625	2.05	4.09	1.137	40.15	22
4	19.614	2.05	8.19	2.274	40.17	45
6	19.607	2.04	12.27	3.409	40.09	67
8	19.597	2.04	16.36	4.544	40.01	89
10	19.591	2.04	20.44	5.678	40.02	111
12	19.585	2.04	24.53	6.813	40.00	133
14	19.576	2.04	28.61	7.947	39.94	156
16	19.573	2.04	32.69	9.081	39.95	178
18	19.568	2.04	36.77	10.214	39.89	200
20	19.559	2.04	40.85	11.347	39.88	222
22	19.558	2.04	44.92	12.479	39.86	244
24	19.548	2.04	49.00	13.611	39.83	266
26	19.549	2.04	53.07	14.742	39.81	288
28	19.545	2.04	57.15	15.875	39.80	310
30	19.539	2.04	61.22	17.006	39.78	332
32	19.540	2.04	65.29	18.137	39.80	354
34	19.532	2.04	69.37	19.268	39.76	376
36	19.523	2.04	73.44	20.400	39.74	398
38	19.522	2.04	77.51	21.532	39.80	420
40	19.522	2.03	81.59	22.663	39.71	442
42	19.515	2.04	85.65	23.793	39.73	464
44	19.513	2.04	89.72	24.923	39.72	486
46	19.511	2.03	93.79	26.053	39.69	508
48	19.505	2.03	97.86	27.183	39.68	530
50	19.503	2.03	101.92	28.312	39.66	552
52	19.497	2.03	105.99	29.442	39.62	574
54	19.496	2.03	110.06	30.571	39.62	596
56	19.488	2.03	114.12	31.700	39.63	618
58	19.490	2.03	118.19	32.829	39.60	640
60	19.494	2.03	122.25	33.958	39.60	662
120	19.418	2.02	243.93	67.758	39.30	1316
180	19.375	2.02	365.29	101.470	39.20	1966
240	19.341	2.02	486.42	135.117	38.99	2613
300	19.313	2.01	607.39	168.719	38.90	3258
360	19.287	2.01	728.20	202.278	38.79	3901
420	19.268	2.01	848.86	235.796	38.73	4543
480	19.242	2.01	969.39	269.275	38.63	5181
540	19.226	2.01	1089.81	302.724	38.55	5820
600	19.203	2.00	1210.10	336.139	38.48	6455
660	19.183	2.00	1330.28	369.522	38.42	7089
720	19.169	2.00	1450.34	402.871	38.33	7722
780	19.153	2.00	1570.28	436.190	38.31	8354
840	19.139	2.00	1690.13	469.481	38.20	8985
900	19.121	1.99	1809.88	502.743	38.13	9613
960	19.104	1.99	1929.51	535.976	38.09	10239
1020	19.091	1.99	2049.07	569.186	38.01	10866
1080	19.073	1.99	2168.55	602.375	37.97	11489
1140	19.066	1.99	2287.93	635.536	37.89	12117
1200	19.044	1.99	2407.22	668.672	37.85	12734
1260	19.035	1.98	2526.43	701.787	37.76	13358
1320	19.027	1.99	2645.57	734.881	37.77	13982
1380	19.013	1.98	2764.62	767.950	37.74	14601
1440	19.000	1.98	2883.61	801.004	37.67	15219
1500	18.986	1.98	3002.53	834.036	37.62	15835
1560	18.974	1.98	3121.38	867.049	37.55	16451
1620	18.962	1.98	3240.13	900.037	37.55	17066
1680	18.954	1.98	3358.83	933.009	37.48	17684
1740	18.938	1.97	3477.45	965.959	37.40	18293
1800	18.929	1.97	3596.02	998.893	37.38	18908
1860	18.917	1.97	3714.50	1031.807	37.34	19519
1920	18.905	1.97	3832.93	1064.703	37.30	20129
1980	18.894	1.97	3951.28	1097.577	37.26	20737
2040	18.882	1.97	4069.56	1130.433	37.21	21344
2100	18.872	1.97	4187.76	1163.268	37.18	21953
2160	18.860	1.97	4305.92	1196.089	37.09	22558
2220	18.849	1.97	4423.97	1228.882	37.06	23163
2280	18.832	1.97	4541.97	1261.658	37.04	23759
2340	18.822	1.96	4659.88	1294.411	36.97	24363
2400	18.812	1.96	4777.72	1327.145	36.95	24966
2460	18.796	1.96	4895.47	1359.853	36.85	25560
2520	18.787	1.96	5013.14	1392.538	36.84	26161
2580	18.768	1.96	5130.71	1425.196	36.80	26749
2640	18.757	1.96	5248.20	1457.834	36.73	27345
2700	18.744	1.96	5365.64	1490.456	36.67	27936
2760	18.731	1.95	5483.00	1523.055	36.61	28529
2820	18.719	1.95	5600.23	1555.620	36.58	29119
2880	18.703	1.95	5717.40	1588.167	36.51	29704
2940	18.693	1.95	5834.48	1620.689	36.43	30295
3000	18.674	1.95	5951.48	1653.189	36.40	30871
3060	18.662	1.95	6068.39	1685.665	36.36	31457
3120	18.651	1.95	6185.21	1718.115	36.32	32044
3180	18.632	1.95	6301.95	1750.541	36.24	32616
3240	18.594	1.94	6418.49	1782.915	36.11	33152
3300	18.574	1.94	6534.88	1815.244	35.97	33716
3360	18.560	1.94	6651.18	1847.550	35.96	34290
3420	18.552	1.94	6767.37	1879.826	35.91	34874
3480	18.532	1.93	6883.46	1912.071	35.84	35435
3540	18.516	1.93	6999.46	1944.294	35.81	36001
3600	18.502	1.93	7115.36	1976.489	35.71	36569
3660	18.485	1.93	7231.17	2008.658	35.64	37130
3720	18.466	1.93	7346.89	2040.803	35.62	37686
3780	18.451	1.93	7462.49	2072.914	35.55	38248
3840	18.435	1.92	7578.01	2105.002	35.48	38805
3900	18.420	1.92	7693.43	2137.064	35.44	39365
3960	18.404	1.92	7808.74	2169.094	35.35	39920
4020	18.384	1.92	7923.91	2201.086	35.25	40465
4080	18.367	1.92	8038.96	2233.045	35.21	41014
4140	18.349	1.92	8153.90	2264.971	35.14	41561
4200	18.333	1.91	8268.73	2296.869	35.08	42107
4260	18.317	1.91	8383.46	2328.738	34.99	42654
4320	18.296	1.91	8498.08	2360.577	34.94	43189
4380	18.280	1.91	8612.59	2392.385	34.89	43734
4440	18.261	1.91	8727.00	2424.166	34.81	44268
4500	18.244	1.90	8841.30	2455.917	34.73	44805
4560	18.224	1.90	8955.49	2487.637	34.70	45334
4620	18.208	1.90	9069.57	2519.326	34.60	45873
4680	18.187	1.90	9183.52	2550.977	34.54	46394
4740	18.169	1.90	9297.33	2582.593	34.44	46923
4800	18.147	1.89	9411.04	2614.178	34.37	47440
4860	18.132	1.89	9524.63	2645.731	34.32	47973
4920	18.106	1.89	9638.11	2677.253	34.19	48473
4980	18.092	1.89	9751.46	2708.738	34.15	49005
5040	18.071	1.89	9864.69	2740.192	34.12	49518
5100	18.051	1.88	9977.81	2771.615	33.99	50030
5160	18.033	1.88	10090.80	2803.001	33.92	50545
5220	18.009	1.88	10203.73	2834.370	33.86	51045
5280	17.990	1.88	10316.53	2865.703	33.79	51553
5340	17.969	1.87	10429.20	2897.000	33.69	52056
5400	17.951	1.87	10541.74	2928.262	33.65	52565
5460	17.925	1.87	10654.16	2959.489	33.58	53048
5520	17.909	1.87	10766.46	2990.684	33.47	53559
5580	17.884	1.87	10878.65	3021.847	33.45	54043
5640	17.860	1.87	10990.71	3052.975	33.33	54525
5700	17.841	1.87	11102.62	3084.061	33.29	55022
5760	17.811	1.86	11214.39	3115.109	33.16	55482
5820	17.788	1.86	11326.01	3146.114	33.06	55962
5880	17.765	1.86	11437.50	3177.082	32.98	56441
5940	17.739	1.85	11548.82	3208.006	32.89	56908
6000	17.711	1.85	11659.97	3238.882	32.79	57363
6060	17.690	1.85	11770.98	3269.716	32.71	57840
6120	17.665	1.85	11881.82	3300.506	32.61	58304
6180	17.641	1.84	11992.51	3331.254	32.53	58767
6240	17.619	1.84	12103.07	3361.965	32.44	59235
6300	17.593	1.84	12213.49	3392.635	32.31	59688
6360	17.576	1.84	12323.77	3423.271	32.27	60168
6420	17.557	1.84	12433.91	3453.863	32.23	60639
6480	17.535	1.83	12543.96	3484.432	32.13	61100
6540	17.523	1.83	12653.90	3514.972	32.08	61591
6600	17.508	1.83	12763.76	3545.488	32.07	62073
6660	17.487	1.83	12873.50	3575.973	32.01	62531
6720	17.472	1.83	12983.16	3606.433	31.92	63012
6780	17.457	1.82	13092.71	3636.863	31.86	63489
6840	17.447	1.82	13202.16	3667.268	31.83	63984
6900	17.437	1.82	13311.56	3697.655	31.76	64475
6960	17.423	1.82	13420.87	3728.019	31.70	64953
7020	17.411	1.82	13530.08	3758.357	31.66	65436
7080	17.397	1.82	13639.24	3788.677	31.66	65913
7140	17.382	1.82	13748.30	3818.972	31.59	66382
7200	17.366	1.82	13857.29	3849.248	31.53	66845
7260	17.353	1.81	13966.21	3879.502	31.49	67321
7320	17.341	1.81	14075.04	3909.733	31.44	67800
7380	17.331	1.81	14183.78	3939.938	31.42	68281
7440	17.315	1.81	14292.41	3970.115	31.36	68743
7500	17.299	1.81	14400.96	4000.266	31.28	69201
7560	17.286	1.81	14509.43	4030.397	31.25	69669
7620	17.269	1.81	14617.80	4060.501	31.17	70122
7680	17.250	1.80	14726.10	4090.582	31.13	70564
7740	17.229	1.80	14834.25	4120.624	31.02	70995
7800	17.209	1.80	14942.29	4150.636	30.99	71428
7860	17.187	1.80	15050.19	4180.609	30.92	71851
7920	17.161	1.80	15157.96	4210.544	30.81	72258
7980	17.140	1.79	15265.55	4240.431	30.70	72682
8040	17.113	1.79	15373.00	4270.279	30.58	73076
8100	17.096	1.79	15480.29	4300.079	30.54	73515
8160	17.065	1.78	15587.44	4329.846	30.43	73887
8220	17.057	1.78	15694.48	4359.579	30.39	74360
8280	17.027	1.78	15801.40	4389.279	30.32	74737
8340	17.008	1.78	15908.15	4418.930	30.21	75156
8400	16.974	1.78	16014.72	4448.534	30.13	75509
8460	16.949	1.77	16121.14	4478.096	30.06	75900
8520	16.926	1.77	16227.41	4507.615	29.97	76294
8580	16.898	1.77	16333.54	4537.095	29.89	76669
8640	16.875	1.77	16439.49	4566.526	29.79	77060
8700	16.844	1.76	16545.27	4595.909	29.69	77414
8760	16.817	1.76	16650.89	4625.249	29.59	77783
8820	16.789	1.76	16756.36	4654.545	29.50	78145
8880	16.760	1.75	16861.62	4683.783	29.36	78499
8940	16.735	1.75	16966.71	4712.976	29.30	78871
9000	16.701	1.75	17071.63	4742.119	29.17	79198
9060	16.674	1.74	17176.35	4771.207	29.07	79555
9120	16.644	1.74	17280.89	4800.249	29.00	79893
9180	16.611	1.74	17385.26	4829.239	28.87	80216
9240	16.579	1.73	17489.41	4858.168	28.74	80545
9300	16.549	1.73	17593.36	4887.044	28.66	80873
9360	16.515	1.73	17697.12	4915.865	28.54	81186
9420	16.490	1.72	17800.67	4944.632	28.41	81535
9480	16.452	1.72	17904.03	4973.340	28.30	81819
9540	16.417	1.72	18007.14	5001.985	28.17	82115
9600	16.381	1.71	18110.06	5030.574	28.05	82405
9660	16.345	1.71	18212.77	5059.102	27.93	82690
9720	16.309	1.70	18315.24	5087.567	27.77	82976
9780	16.269	1.70	18417.47	5115.965	27.69	83234
9840	16.236	1.70	18519.47	5144.298	27.58	83523
9900	16.196	1.69	18621.25	5172.569	27.41	83776
9960	16.158	1.69	18722.78	5200.773	27.32	84033
10020	16.118	1.69	18824.08	5228.912	27.20	84282
10080	16.081	1.68	18925.15	5256.985	27.03	84538
10140	16.056	1.68	19025.99	5284.998	26.99	84859
10200	16.020	1.68	19126.68	5312.967	26.84	85116
10260	15.985	1.67	19227.11	5340.863	26.73	85374
10320	15.942	1.67	19327.30	5368.696	26.56	85588
10380	15.908	1.66	19427.27	5396.464	26.49	85847
10440	15.867	1.66	19527.00	5424.167	26.34	86064
10500	15.831	1.66	19626.47	5451.799	26.23	86309
10560	15.790	1.65	19725.73	5479.369	26.09	86518
10620	15.755	1.65	19824.76	5506.877	25.99	86759
10680	15.716	1.64	19923.55	5534.319	25.84	86980
10740	15.682	1.64	20022.11	5561.698	25.72	87218
10800	15.643	1.64	20120.43	5589.008	25.62	87429
10860	15.605	1.63	20218.52	5616.254	25.49	87642
10920	15.569	1.63	20316.38	5643.440	25.36	87861
10980	15.527	1.63	20414.01	5670.559	25.26	88047
11040	15.491	1.62	20511.40	5697.611	25.12	88262
11100	15.453	1.62	20608.53	5724.591	24.99	88462
11160	15.409	1.61	20705.43	5751.509	24.86	88628
11220	15.368	1.61	20802.09	5778.358	24.75	88800
11280	15.326	1.60	20898.47	5805.131	24.57	88968
11340	15.285	1.60	20994.57	5831.826	24.45	89138
11400	15.235	1.59	21090.37	5858.437	24.29	89256
11460	15.183	1.59	21185.91	5884.975	24.14	89353
11520	15.140	1.58	21281.12	5911.422	23.99	89497
11580	15.090	1.58	21376.02	5937.783	23.81	89602
11640	15.028	1.57	21470.57	5964.047	23.64	89630
# STOPPED at 14.998V
# Q = 5977.58mAh
# W = 89653mWh
